*** DATA FILES ***

Raw data file name(s)	160112l.dp
Sample ID		IZO_TD	
Sample code			
Data process ID			
Analysis date		01/12/2016
Analysis time		21:30	
Analysis recipe name	IZO_single.rdp

*** DATA START ***

160112l.dp
70Zn					113In
Time	Depth[um]	I[cnt/s]	Time	Depth[um]	I[cnt/s]
	2.17600E-003	1.89662E+004		5.63200E-003	4.83871E+005
	8.57600E-003	1.87538E+004		1.20320E-002	4.18196E+005
	1.49760E-002	1.91149E+004		1.84320E-002	4.81493E+005
	2.13760E-002	1.84544E+004		2.48320E-002	5.45063E+005
	2.77760E-002	1.81975E+004		3.12320E-002	5.96120E+005
	3.41760E-002	1.77263E+004		3.76320E-002	6.22721E+005
	4.05760E-002	1.71468E+004		4.40320E-002	6.48101E+005
	4.69760E-002	1.69506E+004		5.04320E-002	6.60781E+005
	5.33760E-002	1.68869E+004		5.68320E-002	6.62434E+005
	5.97760E-002	1.63560E+004		6.32320E-002	6.72209E+005
	6.61760E-002	1.63803E+004		6.96320E-002	6.79387E+005
	7.25760E-002	1.61932E+004		7.60320E-002	6.74967E+005
	7.89760E-002	1.59961E+004		8.24320E-002	6.72926E+005
	8.53760E-002	1.61154E+004		8.88320E-002	6.84826E+005
	9.17760E-002	1.61244E+004		9.52320E-002	7.02227E+005
	9.81760E-002	1.61942E+004		1.01632E-001	7.17189E+005
	1.04576E-001	1.60537E+004		1.08032E-001	7.13054E+005
	1.10976E-001	1.56715E+004		1.14432E-001	7.00892E+005
	1.17376E-001	1.59667E+004		1.20832E-001	6.97323E+005
	1.23776E-001	1.58393E+004		1.27232E-001	6.93722E+005
	1.30176E-001	1.55906E+004		1.33632E-001	6.87713E+005
	1.36576E-001	1.57210E+004		1.40032E-001	6.74739E+005
	1.42976E-001	1.54834E+004		1.46432E-001	6.67087E+005
	1.49376E-001	1.56634E+004		1.52832E-001	6.58292E+005
	1.55776E-001	1.58515E+004		1.59232E-001	6.52162E+005
	1.62176E-001	1.60951E+004		1.65632E-001	6.59068E+005
	1.68576E-001	1.58706E+004		1.72032E-001	6.94243E+005
	1.74976E-001	1.60253E+004		1.78432E-001	7.15800E+005
	1.81376E-001	1.61336E+004		1.84832E-001	7.10575E+005
	1.87776E-001	1.63965E+004		1.91232E-001	6.83710E+005
	1.94176E-001	1.60193E+004		1.97632E-001	6.47055E+005
	2.00576E-001	1.58818E+004		2.04032E-001	6.08890E+005
	2.06976E-001	1.59566E+004		2.10432E-001	6.07079E+005
	2.13376E-001	1.58079E+004		2.16832E-001	6.83555E+005
	2.19776E-001	1.62134E+004		2.23232E-001	6.64324E+005
	2.26176E-001	1.46684E+004		2.29632E-001	3.99279E+005
	2.32576E-001	1.25929E+004		2.36032E-001	1.32646E+005
	2.38976E-001	1.11140E+004		2.42432E-001	3.68478E+004
	2.45376E-001	1.04641E+004		2.48832E-001	1.00891E+004
	2.51776E-001	1.04590E+004		2.55232E-001	3.61305E+003
	2.58176E-001	1.01124E+004		2.61632E-001	2.11296E+003
	2.64576E-001	9.89102E+003		2.68032E-001	1.76448E+003
	2.70976E-001	1.00911E+004		2.74432E-001	1.65741E+003
	2.77376E-001	9.72627E+003		2.80832E-001	1.58974E+003
	2.83776E-001	9.96379E+003		2.87232E-001	1.41500E+003
	2.90176E-001	9.65552E+003		2.93632E-001	1.46045E+003
	2.96576E-001	9.51706E+003		3.00032E-001	1.36450E+003
	3.02976E-001	9.60499E+003		3.06432E-001	1.30390E+003
	3.09376E-001	9.54233E+003		3.12832E-001	1.30188E+003
	3.15776E-001	9.29775E+003		3.19232E-001	1.22814E+003
	3.22176E-001	9.43621E+003		3.25632E-001	1.16350E+003
	3.28576E-001	9.24823E+003		3.32032E-001	1.13724E+003
	3.34976E-001	9.33616E+003		3.38432E-001	1.11199E+003
	3.41376E-001	9.29068E+003		3.44832E-001	1.11906E+003
	3.47776E-001	9.35940E+003		3.51232E-001	1.04028E+003
	3.54176E-001	9.02993E+003		3.57632E-001	9.98867E+002
	3.60576E-001	9.04409E+003		3.64032E-001	9.67557E+002
	3.66976E-001	9.05822E+003		3.70432E-001	1.00190E+003
	3.73376E-001	8.95515E+003		3.76832E-001	9.84728E+002
	3.79776E-001	8.91270E+003		3.83232E-001	9.28167E+002
	3.86176E-001	9.02690E+003		3.89632E-001	8.94836E+002
	3.92576E-001	8.78131E+003		3.96032E-001	9.18067E+002
	3.98976E-001	8.77223E+003		4.02432E-001	8.45346E+002
	4.05376E-001	8.80254E+003		4.08832E-001	8.56456E+002
	4.11776E-001	8.77626E+003		4.15232E-001	8.59486E+002
	4.18176E-001	8.65702E+003		4.21632E-001	7.65556E+002
	4.24576E-001	8.72977E+003		4.28032E-001	7.89796E+002
	4.30976E-001	8.68329E+003		4.34432E-001	7.68586E+002
	4.37376E-001	8.50643E+003		4.40832E-001	7.32226E+002
	4.43776E-001	8.63074E+003		4.47232E-001	6.89807E+002
	4.50176E-001	8.58223E+003		4.53632E-001	7.24146E+002
	4.56576E-001	8.52968E+003		4.60032E-001	6.65567E+002
	4.62976E-001	8.59941E+003		4.66432E-001	6.52437E+002
	4.69376E-001	8.57213E+003		4.72832E-001	6.34257E+002
	4.75776E-001	8.48521E+003		4.79232E-001	6.20117E+002
	4.82176E-001	8.36293E+003		4.85632E-001	6.11028E+002
	4.88576E-001	8.44985E+003		4.92032E-001	5.98908E+002
	4.94976E-001	8.50845E+003		4.98432E-001	5.53458E+002
	5.01376E-001	8.33665E+003		5.04832E-001	5.00939E+002
	5.07776E-001	8.50543E+003		5.11232E-001	5.34269E+002
	5.14176E-001	8.29926E+003		5.17632E-001	5.17099E+002
	5.20576E-001	8.35889E+003		5.24032E-001	5.19119E+002
	5.26976E-001	8.38415E+003		5.30432E-001	4.90840E+002
	5.33376E-001	8.30432E+003		5.36832E-001	4.72660E+002
	5.39776E-001	8.41043E+003		5.43232E-001	4.54480E+002
	5.46176E-001	8.24065E+003		5.49632E-001	4.15092E+002
	5.52576E-001	8.29826E+003		5.56032E-001	4.03982E+002
	5.58976E-001	8.29826E+003		5.62432E-001	3.79743E+002
	5.65376E-001	8.34777E+003		5.68832E-001	3.14095E+002
	5.71776E-001	8.24875E+003		5.75232E-001	2.35318E+002
	5.78176E-001	8.47714E+003		5.81632E-001	1.09074E+002
	5.84576E-001	8.35889E+003		5.88032E-001	2.92883E+001
	5.90976E-001	8.00620E+003		5.94432E-001	1.21193E+001
	5.97376E-001	8.16689E+003		6.00832E-001	7.06958E+000
	6.03776E-001	8.08400E+003		6.07232E-001	1.00994E+000
	6.10176E-001	8.03146E+003		6.13632E-001	5.04970E+000
	6.16576E-001	7.99609E+003		6.20032E-001	1.00994E+000
	6.22976E-001	8.01328E+003		6.26432E-001	2.01988E+000
	6.29376E-001	8.10321E+003		6.32832E-001	2.01988E+000
	6.35776E-001	8.09413E+003		6.39232E-001	2.01988E+000
	6.42176E-001	7.99812E+003		6.45632E-001	1.00994E+000
	6.48576E-001	8.09412E+003		6.52032E-001	6.05964E+000
	6.54976E-001	7.86877E+003		6.58432E-001	1.00994E+000
	6.61376E-001	8.00823E+003		6.64832E-001	4.03976E+000
	6.67776E-001	8.03146E+003		6.71232E-001	5.04970E+000
	6.74176E-001	7.98296E+003		6.77632E-001	3.02982E+000
	6.80576E-001	7.91424E+003		6.84032E-001	9.08946E+000
	6.86976E-001	7.89100E+003		6.90432E-001	1.00000E-003
	6.93376E-001	8.06481E+003		6.96832E-001	2.01988E+000
	6.99776E-001	7.81926E+003		7.03232E-001	1.00994E+000
	7.06176E-001	8.03652E+003		7.09632E-001	6.05964E+000
	7.12576E-001	8.02035E+003		7.16032E-001	4.03976E+000
	7.18976E-001	7.85563E+003		7.22432E-001	3.02982E+000
	7.25376E-001	7.77983E+003		7.28832E-001	3.02982E+000
	7.31776E-001	7.86472E+003		7.36000E-001	2.01988E+000

*** DATA END ***

*** ANALYSIS POSITION ***

Data file name(s)	160112l.dp
Shuttle_ID		18_holes_new
Stage coordinates
X(um)			-915	
Y(um)			-4992	
Z(um)			0	
Window coordinates
X(um)			356	
Y(um)			127	
Sample coordinates
X(um)			356	
Y(um)			127	

*** ANALYSIS RECIPE ***

File name(s)		IZO_single.rdp
Creation date		01/12/2016
Creation time		21:30	

*** ACQUISITION PARAMETERS ***

Data file name(s)		160112l.dp
# of data point/species		115	
Total sputtering time (s)	460	
Total acquisition time (s)	466	
Crater depth measurement	No	
   Total depth (nm)			
Frame number/data point		1	
Sputtering for waiting time	Yes	
Pre-sputtering			No	
   Time (s)				
Reference signal		No	
   Species				
   Integration time (s)			
   Mass calibration			
Mass calib monitoring		No	
   Species				
   Cycle # for first control		
   Control period (cycles)		
   # data point per peak width		
   Counting time			
   # of mass scans			
HV sample monitoring		No	
   Species				
   Cycle # for first control		
   Control period (cycles)		
   Offset min (V)			
   Offset max (V)			
   Offset step (V)			
   Energy pass band (eV)		
   Energy gap (eV)			
   Counting time			
Comments				


*** MEASUREMENT CONDITIONS, 160112l.dp ***:

Species         | Mass (amu) | Mass (field) | Detector | WT(s)   | Extra WT(s) | CT(s)   | Offset
-------------------------------------------------------------------------------------------------
70Zn            | 69.925     | 1677188      | EM       | 0.560   | 0.240       | 1.040   | 0
113In           | 112.904    | 2125419      | EM       | 0.720   | 0.400       | 1.040   | 0

*** MAIN ANALYTICAL PARAMETERS (MAP) ***

Data file name(s)		160112l.dp
ISF file name			160112duo_10kev+15+5.D6
Primary ions			O2+	
Primary column			Non-Floating
Impact energy (eV)		10010	
Secondary ion polarity		+	
Secondary ion energy (V)	4990	

*** OPTIONAL INSTRUMENTAL PARAMETERS (OIP) ***

Data file name(s)		160112l.dp
Prim beam preset		0	
Prim beam intensity @t=0 (nA)	1.007E+002
Prim beam intensity @t=end (nA)	1.078E+002
Prim beam intensity regulation	No	
Raster size (um)		150	
DTOS				Off	
Analyzed area size (um)		62	
EGate rate (%)			80	
Mass resolution			400	
Field aperture (um)		750	
Contrast aperture (um)		150	
Entrance slit (um)		401	
Exit slit (um)			599	
Energy window (eV)		195	
Energy slit offset (eV)		73	
PBMF aperture (um)		-	
LPRIM4 aperture (um)		-	
Rotation			Off	
Speed (rpm)			0.020	

*** ION DETECTOR PARAMETERS ***

Data file name(s)		160112l.dp
EM yield (%)			9.5E+001
EM HV (V)			3386	
EM discriminator threshold (mV)	82	
EM background (c/s)		0.0E+000
EM dead time (ns)		2.5E+001
EM -> FC threshold (c/s)	694356	
FC -> EM threshold (c/s)	568110	

*** OTHERS ***

Data file name(s)		160112l.dp
Oxygen flooding			No	
Analysis chamber press (mbar)	5.4E-009
Electron gun			Yes	
   e-gun HV			-5.0E+003
   e-beam current		1.8E-003

*** CALIBRATION PARAMETERS ***

Data File name(s)	160112l.dp
Layer #1 matrix		64Zn 16O 	
  1st Interface (nm)	0.000E+000	
  2nd Interface (nm)	7.360E+002	
  Depth calib method	SR		
  Mean SR (nm/min)	9.600E+001	
    Species		70Zn		
      Conc calib method	
      RSF  (at/cm3)	
      Dose (at/cm2)	
      [C]  (at/cm3)	
      Ref signal	
    Species		113In		
      Conc calib method	
      RSF  (at/cm3)	
      Dose (at/cm2)	
      [C]  (at/cm3)	
      Ref signal	
